Channel Wavelength(nm) Current 
0 183.11 0 
1 183.37 0 
2 183.64 0 
3 183.9 0 
4 184.17 0 
5 184.43 0 
6 184.69 0 
7 184.96 0 
8 185.22 0 
9 185.49 0 
10 185.75 0 
11 186.02 0 
12 186.28 0 
13 186.55 0 
14 186.81 0 
15 187.08 0 
16 187.34 0 
17 187.61 0 
18 187.87 0 
19 188.14 0 
20 188.4 0 
21 188.67 0 
22 188.93 0 
23 189.2 0 
24 189.46 0 
25 189.73 0 
26 189.99 0 
27 190.26 0 
28 190.52 0 
29 190.79 0 
30 191.05 0 
31 191.32 0 
32 191.58 0 
33 191.85 0 
34 192.11 0 
35 192.38 0 
36 192.64 0 
37 192.91 0 
38 193.17 0 
39 193.43 0 
40 193.7 0 
41 193.96 0 
42 194.23 0 
43 194.49 0 
44 194.76 0 
45 195.02 0 
46 195.29 0 
47 195.55 0 
48 195.82 0 
49 196.08 0 
50 196.35 0 
51 196.61 0 
52 196.88 0 
53 197.14 0 
54 197.41 0 
55 197.67 0 
56 197.94 0 
57 198.2 0 
58 198.47 0 
59 198.73 0 
60 199 0 
61 199.26 0 
62 199.53 0 
63 199.79 0 
64 200.06 0 
65 200.32 0 
66 200.59 0 
67 200.85 0 
68 201.12 0 
69 201.38 0 
70 201.65 0 
71 201.91 0 
72 202.18 0 
73 202.44 0 
74 202.7 0 
75 202.97 0 
76 203.23 0 
77 203.5 0 
78 203.76 0 
79 204.03 0 
80 204.29 0 
81 204.56 0 
82 204.82 0 
83 205.09 0 
84 205.35 0 
85 205.62 0 
86 205.88 0 
87 206.15 0 
88 206.41 0 
89 206.68 0 
90 206.94 0 
91 207.21 0 
92 207.47 0 
93 207.74 0 
94 208 0 
95 208.27 0 
96 208.53 0 
97 208.8 0 
98 209.06 0 
99 209.33 0 
100 209.59 0 
101 209.86 0 
102 210.12 0 
103 210.39 0 
104 210.65 0 
105 210.92 0 
106 211.18 0 
107 211.45 0 
108 211.71 0 
109 211.97 0 
110 212.24 0 
111 212.5 0 
112 212.77 0 
113 213.03 0 
114 213.3 0 
115 213.56 0 
116 213.83 0 
117 214.09 0 
118 214.36 0 
119 214.62 0 
120 214.89 0 
121 215.15 0 
122 215.42 0 
123 215.68 0 
124 215.95 0 
125 216.21 0 
126 216.48 0 
127 216.74 0 
128 217.01 0 
129 217.27 0 
130 217.54 0 
131 217.8 0 
132 218.07 0 
133 218.33 0 
134 218.6 0 
135 218.86 0 
136 219.13 0 
137 219.39 0 
138 219.66 0 
139 219.92 0 
140 220.19 0 
141 220.45 0 
142 220.71 0 
143 220.98 0 
144 221.24 0 
145 221.51 0 
146 221.77 0 
147 222.04 0 
148 222.3 0 
149 222.57 0 
150 222.83 0 
151 223.1 0 
152 223.36 0 
153 223.63 0 
154 223.89 0 
155 224.16 0 
156 224.42 0 
157 224.69 0 
158 224.95 0 
159 225.22 0 
160 225.48 0 
161 225.75 0 
162 226.01 0 
163 226.28 0 
164 226.54 0 
165 226.81 0 
166 227.07 0 
167 227.34 0 
168 227.6 0 
169 227.87 0 
170 228.13 0 
171 228.4 0 
172 228.66 0 
173 228.93 0 
174 229.19 0 
175 229.46 0 
176 229.72 0 
177 229.98 0 
178 230.25 0 
179 230.51 0 
180 230.78 0 
181 231.04 0 
182 231.31 0 
183 231.57 0 
184 231.84 0 
185 232.1 0 
186 232.37 0 
187 232.63 0 
188 232.9 0 
189 233.16 0 
190 233.43 0 
191 233.69 0 
192 233.96 0 
193 234.22 0 
194 234.49 0 
195 234.75 0 
196 235.02 0 
197 235.28 0 
198 235.55 0 
199 235.81 0 
200 236.08 0 
201 236.34 0 
202 236.61 0 
203 236.87 0 
204 237.14 0 
205 237.4 0 
206 237.67 0 
207 237.93 0 
208 238.2 0 
209 238.46 0 
210 238.73 0 
211 238.99 0 
212 239.25 0 
213 239.52 0 
214 239.78 0 
215 240.05 0 
216 240.31 0 
217 240.58 0 
218 240.84 0 
219 241.11 0 
220 241.37 0 
221 241.64 0 
222 241.9 0 
223 242.17 0 
224 242.43 0 
225 242.7 0 
226 242.96 0 
227 243.23 0 
228 243.49 0 
229 243.76 0 
230 244.02 0 
231 244.29 0 
232 244.55 0 
233 244.82 0 
234 245.08 0 
235 245.35 0 
236 245.61 0 
237 245.88 0 
238 246.14 0 
239 246.41 0 
240 246.67 0 
241 246.94 0 
242 247.2 0 
243 247.47 0 
244 247.73 0 
245 247.99 0 
246 248.26 0 
247 248.52 0 
248 248.79 0 
249 249.05 0 
250 249.32 0 
251 249.58 0 
252 249.85 0 
253 250.11 0 
254 250.38 0 
255 250.64 0 
256 250.91 0 
257 251.17 0 
258 251.44 0 
259 251.7 0 
260 251.97 0 
261 252.23 0 
262 252.5 0 
263 252.76 0 
264 253.03 0 
265 253.29 0 
266 253.56 0 
267 253.82 0 
268 254.09 0 
269 254.35 0 
270 254.62 0 
271 254.88 0 
272 255.15 0 
273 255.41 0 
274 255.68 0 
275 255.94 0 
276 256.21 0 
277 256.47 0 
278 256.74 0 
279 257 0 
280 257.26 0 
281 257.53 0 
282 257.79 0 
283 258.06 0 
284 258.32 0 
285 258.59 0 
286 258.85 0 
287 259.12 0 
288 259.38 0 
289 259.65 0 
290 259.91 0 
291 260.18 0 
292 260.44 0 
293 260.71 0 
294 260.97 0 
295 261.24 0 
296 261.5 0 
297 261.77 0 
298 262.03 0 
299 262.3 0 
300 262.56 0 
301 262.83 0 
302 263.09 0 
303 263.36 0 
304 263.62 0 
305 263.89 0 
306 264.15 0 
307 264.42 0 
308 264.68 0 
309 264.95 0 
310 265.21 0 
311 265.48 0 
312 265.74 0 
313 266 0 
314 266.27 0 
315 266.53 0 
316 266.8 0 
317 267.06 0 
318 267.33 0 
319 267.59 0 
320 267.86 0 
321 268.12 0 
322 268.39 0 
323 268.65 0 
324 268.92 0 
325 269.18 0 
326 269.45 0 
327 269.71 0 
328 269.98 0 
329 270.24 0 
330 270.51 0 
331 270.77 0 
332 271.04 0 
333 271.3 0 
334 271.57 0 
335 271.83 0 
336 272.1 0 
337 272.36 0 
338 272.63 0 
339 272.89 0 
340 273.16 0 
341 273.42 0 
342 273.69 0 
343 273.95 0 
344 274.22 0 
345 274.48 0 
346 274.75 0 
347 275.01 0 
348 275.27 0 
349 275.54 0 
350 275.8 0 
351 276.07 0 
352 276.33 0 
353 276.6 0 
354 276.86 0 
355 277.13 0 
356 277.39 0 
357 277.66 0 
358 277.92 0 
359 278.19 0 
360 278.45 0 
361 278.72 0 
362 278.98 0 
363 279.25 0 
364 279.51 0 
365 279.78 0 
366 280.04 0 
367 280.31 0 
368 280.57 0 
369 280.84 0 
370 281.1 0 
371 281.37 0 
372 281.63 0 
373 281.9 0 
374 282.16 0 
375 282.43 0 
376 282.69 0 
377 282.96 0 
378 283.22 0 
379 283.49 0 
380 283.75 0 
381 284.02 0 
382 284.28 0 
383 284.54 0 
384 284.81 0 
385 285.07 0 
386 285.34 0 
387 285.6 0 
388 285.87 0 
389 286.13 0 
390 286.4 0 
391 286.66 0 
392 286.93 0 
393 287.19 0 
394 287.46 0 
395 287.72 0 
396 287.99 0 
397 288.25 0 
398 288.52 0 
399 288.78 0 
400 289.05 0 
401 289.31 0 
402 289.58 0 
403 289.84 0 
404 290.11 0 
405 290.37 0 
406 290.64 0 
407 290.9 0 
408 291.17 0 
409 291.43 0 
410 291.7 0 
411 291.96 0 
412 292.23 0 
413 292.49 0 
414 292.76 0 
415 293.02 0 
416 293.28 0 
417 293.55 0 
418 293.81 0 
419 294.08 0 
420 294.34 0 
421 294.61 0 
422 294.87 0 
423 295.14 0 
424 295.4 0 
425 295.67 0 
426 295.93 0 
427 296.2 0 
428 296.46 0 
429 296.73 0 
430 296.99 0 
431 297.26 0 
432 297.52 0 
433 297.79 0 
434 298.05 0 
435 298.32 0 
436 298.58 0 
437 298.85 0 
438 299.11 0 
439 299.38 0 
440 299.64 0 
441 299.91 0 
442 300.17 0 
443 300.44 0 
444 300.7 0 
445 300.97 0 
446 301.23 0 
447 301.5 0 
448 301.76 0 
449 302.03 0 
450 302.29 0 
451 302.55 0 
452 302.82 0 
453 303.08 0 
454 303.35 0 
455 303.61 0 
456 303.88 0 
457 304.14 0 
458 304.41 0 
459 304.67 0 
460 304.94 0 
461 305.2 0 
462 305.47 0 
463 305.73 0 
464 306 0 
465 306.26 0 
466 306.53 0 
467 306.79 0 
468 307.06 0 
469 307.32 0 
470 307.59 0 
471 307.85 0 
472 308.12 0 
473 308.38 0 
474 308.65 0 
475 308.91 0 
476 309.18 0 
477 309.44 0 
478 309.71 0 
479 309.97 0 
480 310.24 0 
481 310.5 0 
482 310.77 0 
483 311.03 0 
484 311.3 0 
485 311.56 0 
486 311.83 0 
487 312.09 0 
488 312.36 0 
489 312.62 0 
490 312.89 0 
491 313.15 0 
492 313.42 0 
493 313.68 0 
494 313.95 0 
495 314.21 0 
496 314.48 0 
497 314.74 0 
498 315.01 0 
499 315.27 0 
500 315.54 0 
501 315.8 0 
502 316.07 0 
503 316.33 0 
504 316.6 0 
505 316.86 0 
506 317.13 0 
507 317.39 0 
508 317.66 0 
509 317.92 0 
510 318.19 0 
511 318.45 0 
512 318.72 0 
513 318.98 0 
514 319.25 0 
515 319.51 0 
516 319.78 0 
517 320.04 0 
518 320.31 0 
519 320.57 0 
520 320.84 0 
521 321.1 0 
522 321.37 0 
523 321.64 0 
524 321.9 0 
525 322.17 0 
526 322.43 0 
527 322.7 0 
528 322.96 0 
529 323.23 0 
530 323.49 0 
531 323.76 0 
532 324.02 0 
533 324.29 0 
534 324.55 0 
535 324.82 0 
536 325.08 0 
537 325.35 0 
538 325.61 0 
539 325.88 0 
540 326.14 0 
541 326.41 0 
542 326.68 0 
543 326.94 0 
544 327.21 0 
545 327.47 0 
546 327.74 0 
547 328 0 
548 328.27 0 
549 328.53 0 
550 328.8 0 
551 329.06 0 
552 329.33 0 
553 329.59 0 
554 329.86 0 
555 330.13 0 
556 330.39 0 
557 330.66 0 
558 330.92 0 
559 331.19 0 
560 331.45 0 
561 331.72 0 
562 331.98 0 
563 332.25 0 
564 332.52 0 
565 332.78 0 
566 333.05 0 
567 333.31 0 
568 333.58 0 
569 333.84 0 
570 334.11 0 
571 334.37 0 
572 334.64 0 
573 334.91 0 
574 335.17 0 
575 335.44 0 
576 335.7 0 
577 335.97 0 
578 336.23 0 
579 336.5 0 
580 336.77 0 
581 337.03 0 
582 337.3 0 
583 337.56 0 
584 337.83 0 
585 338.09 0 
586 338.36 0 
587 338.63 0 
588 338.89 0 
589 339.16 0 
590 339.42 0 
591 339.69 0 
592 339.96 0 
593 340.22 0 
594 340.49 0 
595 340.75 0 
596 341.02 0 
597 341.28 0 
598 341.55 0 
599 341.82 0 
600 342.08 0 
601 342.35 0 
602 342.61 0 
603 342.88 0 
604 343.15 0 
605 343.41 0 
606 343.68 0 
607 343.94 0 
608 344.21 0 
609 344.48 0 
610 344.74 0 
611 345.01 0 
612 345.28 0 
613 345.54 0 
614 345.81 0 
615 346.07 0 
616 346.34 0 
617 346.61 0 
618 346.87 0 
619 347.14 0 
620 347.41 0 
621 347.67 0 
622 347.94 0 
623 348.2 0 
624 348.47 0 
625 348.74 0 
626 349 0 
627 349.27 0 
628 349.54 0 
629 349.8 0 
630 350.07 0 
631 350.34 0 
632 350.6 0 
633 350.87 0 
634 351.13 0 
635 351.4 0 
636 351.67 0 
637 351.93 0 
638 352.2 0 
639 352.47 0 
640 352.73 0 
641 353 0 
642 353.27 0 
643 353.53 0 
644 353.8 0 
645 354.07 0 
646 354.33 0 
647 354.6 0 
648 354.87 0 
649 355.13 0 
650 355.4 0 
651 355.67 0 
652 355.93 0 
653 356.2 0 
654 356.47 0 
655 356.73 0 
656 357 0 
657 357.27 0 
658 357.53 0 
659 357.8 0 
660 358.07 0 
661 358.34 0 
662 358.6 0 
663 358.87 0 
664 359.14 0 
665 359.4 0 
666 359.67 0 
667 359.94 0 
668 360.2 0 
669 360.47 0 
670 360.74 0 
671 361.01 0 
672 361.27 0 
673 361.54 0 
674 361.81 0 
675 362.07 0 
676 362.34 0 
677 362.61 0 
678 362.88 0 
679 363.14 0 
680 363.41 0 
681 363.68 0 
682 363.95 0 
683 364.21 0 
684 364.48 0 
685 364.75 0 
686 365.01 0 
687 365.28 0 
688 365.55 0 
689 365.82 0 
690 366.08 0 
691 366.35 0 
692 366.62 0 
693 366.89 0 
694 367.15 0 
695 367.42 0 
696 367.69 0 
697 367.96 0 
698 368.23 0 
699 368.49 0 
700 368.76 0 
701 369.03 0 
702 369.3 0 
703 369.56 0 
704 369.83 0 
705 370.1 0 
706 370.37 0 
707 370.63 0 
708 370.9 0 
709 371.17 0 
710 371.44 0 
711 371.71 0 
712 371.97 0 
713 372.24 0 
714 372.51 0 
715 372.78 0 
716 373.05 0 
717 373.31 0 
718 373.58 0 
719 373.85 0 
720 374.12 0 
721 374.38 0 
722 374.65 0 
723 374.92 0 
724 375.19 0 
725 375.46 0 
726 375.72 0 
727 375.99 0 
728 376.26 0 
729 376.53 0 
730 376.8 0 
731 377.06 0 
732 377.33 0 
733 377.6 0 
734 377.87 0 
735 378.14 0 
736 378.4 0 
737 378.67 0 
738 378.94 0 
739 379.21 0 
740 379.48 0 
741 379.75 0 
742 380.01 0 
743 380.28 0 
744 380.55 0 
745 380.82 0 
746 381.09 0 
747 381.35 0 
748 381.62 0 
749 381.89 0 
750 382.16 0 
751 382.43 0 
752 382.69 0 
753 382.96 0 
754 383.23 0 
755 383.5 0 
756 383.77 0 
757 384.03 0 
758 384.3 0 
759 384.57 0 
760 384.84 0 
761 385.11 0 
762 385.38 0 
763 385.64 0 
764 385.91 0 
765 386.18 0 
766 386.45 0 
767 386.72 0 
768 386.98 0 
769 387.25 0 
770 387.52 0 
771 387.79 0 
772 388.06 0 
773 388.32 0 
774 388.59 0 
775 388.86 0 
776 389.13 0 
777 389.4 0 
778 389.66 0 
779 389.93 0 
780 390.2 0 
781 390.47 0 
782 390.74 0 
783 391 0 
784 391.27 0 
785 391.54 0 
786 391.81 0 
787 392.08 0 
788 392.34 0 
789 392.61 0 
790 392.88 0 
791 393.15 0 
792 393.42 0 
793 393.68 0 
794 393.95 0 
795 394.22 0 
796 394.49 0 
797 394.76 0 
798 395.02 0 
799 395.29 0 
800 395.56 0 
801 395.83 0 
802 396.09 0 
803 396.36 0 
804 396.63 0 
805 396.9 0 
806 397.17 0 
807 397.43 0 
808 397.7 0 
809 397.97 0 
810 398.24 0 
811 398.5 0 
812 398.77 0 
813 399.04 0 
814 399.31 0 
815 399.57 0 
816 399.84 0 
817 400.11 0 
818 400.38 0 
819 400.65 0 
820 400.91 0 
821 401.18 0 
822 401.45 0 
823 401.72 0 
824 401.98 0 
825 402.25 0 
826 402.52 0 
827 402.78 0 
828 403.05 0 
829 403.32 0 
830 403.59 0 
831 403.85 0 
832 404.12 0 
833 404.39 0 
834 404.66 0 
835 404.92 0 
836 405.19 0 
837 405.46 0 
838 405.72 0 
839 405.99 0 
840 406.26 0 
841 406.53 0 
842 406.79 0 
843 407.06 0 
844 407.33 0 
845 407.59 0 
846 407.86 0 
847 408.13 0 
848 408.4 0 
849 408.66 0 
850 408.93 0 
851 409.2 0 
852 409.46 0 
853 409.73 0 
854 410 0 
855 410.26 0 
856 410.53 0 
857 410.8 0 
858 411.06 0 
859 411.33 0 
860 411.6 0 
861 411.86 0 
862 412.13 0 
863 412.4 0 
864 412.66 0 
865 412.93 0 
866 413.2 0 
867 413.46 0 
868 413.73 0 
869 414 0 
870 414.26 0 
871 414.53 0 
872 414.8 0 
873 415.06 0 
874 415.33 0 
875 415.6 0 
876 415.86 0 
877 416.13 0 
878 416.4 0 
879 416.66 0 
880 416.93 0 
881 417.19 0 
882 417.46 0 
883 417.73 0 
884 417.99 0 
885 418.26 0 
886 418.53 0 
887 418.79 0 
888 419.06 0 
889 419.33 0 
890 419.59 0 
891 419.86 0 
892 420.13 0 
893 420.39 0 
894 420.66 0 
895 420.92 0 
896 421.19 0 
897 421.46 0 
898 421.72 0 
899 421.99 0 
900 422.26 0 
901 422.52 0 
902 422.79 0 
903 423.05 0 
904 423.32 0 
905 423.59 0 
906 423.85 0 
907 424.12 0 
908 424.39 0 
909 424.65 0 
910 424.92 0 
911 425.18 0 
912 425.45 0 
913 425.72 0 
914 425.98 0 
915 426.25 0 
916 426.52 0 
917 426.78 0 
918 427.05 0 
919 427.31 0 
920 427.58 0 
921 427.85 0 
922 428.11 0 
923 428.38 0 
924 428.64 0 
925 428.91 0 
926 429.18 0 
927 429.44 0 
928 429.71 0 
929 429.98 0 
930 430.24 0 
931 430.51 0 
932 430.77 0 
933 431.04 0 
934 431.31 0 
935 431.57 0 
936 431.84 0 
937 432.11 0 
938 432.37 0 
939 432.64 0 
940 432.9 0 
941 433.17 0 
942 433.44 0 
943 433.7 0 
944 433.97 0 
945 434.24 0 
946 434.5 0 
947 434.77 0 
948 435.03 0 
949 435.3 0 
950 435.57 0 
951 435.83 0 
952 436.1 0 
953 436.37 0 
954 436.63 0 
955 436.9 0 
956 437.16 0 
957 437.43 0 
958 437.7 0 
959 437.96 0 
960 438.23 0 
961 438.5 0 
962 438.76 0 
963 439.03 0 
964 439.3 0 
965 439.56 0 
966 439.83 0 
967 440.09 0 
968 440.36 0 
969 440.63 0 
970 440.89 0 
971 441.16 0 
972 441.43 0 
973 441.69 0 
974 441.96 0 
975 442.23 0 
976 442.49 0 
977 442.76 0 
978 443.02 0 
979 443.29 0 
980 443.56 0 
981 443.82 0 
982 444.09 0 
983 444.36 0 
984 444.62 0 
985 444.89 0 
986 445.16 0 
987 445.42 0 
988 445.69 0 
989 445.96 0 
990 446.22 0 
991 446.49 0 
992 446.76 0 
993 447.02 0 
994 447.29 0 
995 447.56 0 
996 447.82 0 
997 448.09 0 
998 448.35 0 
999 448.62 0 
1000 448.89 0 
1001 449.15 0 
1002 449.42 0 
1003 449.69 0 
1004 449.95 0 
1005 450.22 0 
1006 450.49 0 
1007 450.75 0 
1008 451.02 0 
1009 451.29 0 
1010 451.55 0 
1011 451.82 0 
1012 452.09 0 
1013 452.35 0 
1014 452.62 0 
1015 452.89 0 
1016 453.15 0 
1017 453.42 0 
1018 453.69 0 
1019 453.95 0 
1020 454.22 0 
1021 454.49 0 
1022 454.75 0 
1023 455.02 0 
1024 455.29 0 
1025 455.55 0 
1026 455.82 0 
1027 456.09 0 
1028 456.35 0 
1029 456.62 0 
1030 456.89 0 
1031 457.15 0 
1032 457.42 0 
1033 457.69 0 
1034 457.95 0 
1035 458.22 0 
1036 458.49 0 
1037 458.75 0 
1038 459.02 0 
1039 459.29 0 
1040 459.55 0 
1041 459.82 0 
1042 460.09 0 
1043 460.35 0 
1044 460.62 0 
1045 460.89 0 
1046 461.15 0 
1047 461.42 0 
1048 461.69 0 
1049 461.95 0 
1050 462.22 0 
1051 462.49 0 
1052 462.75 0 
1053 463.02 0 
1054 463.29 0 
1055 463.55 0 
1056 463.82 0 
1057 464.09 0 
1058 464.35 0 
1059 464.62 0 
1060 464.89 0 
1061 465.15 0 
1062 465.42 0 
1063 465.69 0 
1064 465.95 0 
1065 466.22 0 
1066 466.49 0 
1067 466.75 0 
1068 467.02 0 
1069 467.29 0 
1070 467.56 0 
1071 467.82 0 
1072 468.09 0 
1073 468.36 0 
1074 468.62 0 
1075 468.89 0 
1076 469.16 0 
1077 469.42 0 
1078 469.69 0 
1079 469.96 0 
1080 470.22 0 
1081 470.49 0 
1082 470.76 0 
1083 471.02 0 
1084 471.29 0 
1085 471.56 0 
1086 471.82 0 
1087 472.09 0 
1088 472.36 0 
1089 472.62 0 
1090 472.89 0 
1091 473.16 0 
1092 473.42 0 
1093 473.69 0 
1094 473.96 0 
1095 474.22 0 
1096 474.49 0 
1097 474.76 0 
1098 475.03 0 
1099 475.29 0 
1100 475.56 0 
1101 475.83 0 
1102 476.09 0 
1103 476.36 0 
1104 476.63 0 
1105 476.89 0 
1106 477.16 0 
1107 477.43 0 
1108 477.69 0 
1109 477.96 0 
1110 478.23 0 
1111 478.49 0 
1112 478.76 0 
1113 479.03 0 
1114 479.29 0 
1115 479.56 0 
1116 479.83 0 
1117 480.09 0 
1118 480.36 0 
1119 480.63 0 
1120 480.9 0 
1121 481.16 0 
1122 481.43 0 
1123 481.7 0 
1124 481.96 0 
1125 482.23 0 
1126 482.5 0 
1127 482.76 0 
1128 483.03 0 
1129 483.3 0 
1130 483.56 0 
1131 483.83 0 
1132 484.1 0 
1133 484.36 0 
1134 484.63 0 
1135 484.9 0 
1136 485.16 0 
1137 485.43 0 
1138 485.7 0 
1139 485.96 0 
1140 486.23 0 
1141 486.5 0 
1142 486.77 0 
1143 487.03 0 
1144 487.3 0 
1145 487.57 0 
1146 487.83 0 
1147 488.1 0 
1148 488.37 0 
1149 488.63 0 
1150 488.9 0 
1151 489.17 0 
1152 489.43 0 
1153 489.7 0 
1154 489.97 0 
1155 490.23 0 
1156 490.5 0 
1157 490.77 0 
1158 491.03 0 
1159 491.3 0 
1160 491.57 0 
1161 491.83 0 
1162 492.1 0 
1163 492.37 0 
1164 492.63 0 
1165 492.9 0 
1166 493.17 0 
1167 493.44 0 
1168 493.7 0 
1169 493.97 0 
1170 494.24 0 
1171 494.5 0 
1172 494.77 0 
1173 495.04 0 
1174 495.3 0 
1175 495.57 0 
1176 495.84 0 
1177 496.1 0 
1178 496.37 0 
1179 496.64 0 
1180 496.9 0 
1181 497.17 0 
1182 497.44 0 
1183 497.7 0 
1184 497.97 0 
1185 498.24 0 
1186 498.5 0 
1187 498.77 0 
1188 499.04 0 
1189 499.3 0 
1190 499.57 0 
1191 499.84 0 
1192 500.1 0 
1193 500.37 0 
1194 500.64 0 
1195 500.9 0 
1196 501.17 0 
1197 501.44 0 
1198 501.7 0 
1199 501.97 0 
1200 502.24 0 
1201 502.5 0 
1202 502.77 0 
1203 503.04 0 
1204 503.3 0 
1205 503.57 0 
1206 503.84 0 
1207 504.1 0 
1208 504.37 0 
1209 504.64 0 
1210 504.9 0 
1211 505.17 0 
1212 505.44 0 
1213 505.7 0 
1214 505.97 0 
1215 506.24 0 
1216 506.5 0 
1217 506.77 0 
1218 507.04 0 
1219 507.3 0 
1220 507.57 0 
1221 507.84 0 
1222 508.1 0 
1223 508.37 0 
1224 508.64 0 
1225 508.9 0 
1226 509.17 0 
1227 509.44 0 
1228 509.7 0 
1229 509.97 0 
1230 510.24 0 
1231 510.5 0 
1232 510.77 0 
1233 511.04 0 
1234 511.3 0 
1235 511.57 0 
1236 511.84 0 
1237 512.1 0 
1238 512.37 0 
1239 512.64 0 
1240 512.9 0 
1241 513.17 0 
1242 513.44 0 
1243 513.7 0 
1244 513.97 0 
1245 514.24 0 
1246 514.5 0 
1247 514.77 0 
1248 515.03 0 
1249 515.3 0 
1250 515.57 0 
1251 515.83 0 
1252 516.1 0 
1253 516.37 0 
1254 516.63 0 
1255 516.9 0 
1256 517.17 0 
1257 517.43 0 
1258 517.7 0 
1259 517.97 0 
1260 518.23 0 
1261 518.5 0 
1262 518.77 0 
1263 519.03 0 
1264 519.3 0 
1265 519.57 0 
1266 519.83 0 
1267 520.1 0 
1268 520.37 0 
1269 520.63 0 
1270 520.9 0 
1271 521.17 0 
1272 521.43 0 
1273 521.7 0 
1274 521.96 0 
1275 522.23 0 
1276 522.5 0 
1277 522.76 0 
1278 523.03 0 
1279 523.3 0 
1280 523.56 0 
1281 523.83 0 
1282 524.1 0 
1283 524.36 0 
1284 524.63 0 
1285 524.9 0 
1286 525.16 0 
1287 525.43 0 
1288 525.7 0 
1289 525.96 0 
1290 526.23 0 
1291 526.5 0 
1292 526.76 0 
1293 527.03 0 
1294 527.29 0 
1295 527.56 0 
1296 527.83 0 
1297 528.09 0 
1298 528.36 0 
1299 528.63 0 
1300 528.89 0 
1301 529.16 0 
1302 529.43 0 
1303 529.69 0 
1304 529.96 0 
1305 530.23 0 
1306 530.49 0 
1307 530.76 0 
1308 531.03 0 
1309 531.29 0 
1310 531.56 0 
1311 531.83 0 
1312 532.09 0 
1313 532.36 0 
1314 532.63 0 
1315 532.89 0 
1316 533.16 0 
1317 533.43 0 
1318 533.69 0 
1319 533.96 0 
1320 534.23 0 
1321 534.49 0 
1322 534.76 0 
1323 535.02 0 
1324 535.29 0 
1325 535.56 0 
1326 535.82 0 
1327 536.09 0 
1328 536.36 0 
1329 536.62 0 
1330 536.89 0 
1331 537.16 0 
1332 537.42 0 
1333 537.69 0 
1334 537.96 0 
1335 538.22 0 
1336 538.49 0 
1337 538.76 0 
1338 539.02 0 
1339 539.29 0 
1340 539.56 0 
1341 539.82 0 
1342 540.09 0 
1343 540.36 0 
1344 540.62 0 
1345 540.89 0 
1346 541.16 0 
1347 541.42 0 
1348 541.69 0 
1349 541.96 0 
1350 542.22 0 
1351 542.49 0 
1352 542.76 0 
1353 543.02 0 
1354 543.29 0 
1355 543.56 0 
1356 543.82 0 
1357 544.09 0 
1358 544.36 0 
1359 544.62 0 
1360 544.89 0 
1361 545.16 0 
1362 545.42 0 
1363 545.69 0 
1364 545.96 0 
1365 546.23 0 
1366 546.49 0 
1367 546.76 0 
1368 547.03 0 
1369 547.29 0 
1370 547.56 0 
1371 547.83 0 
1372 548.09 0 
1373 548.36 0 
1374 548.63 0 
1375 548.89 0 
1376 549.16 0 
1377 549.43 0 
1378 549.69 0 
1379 549.96 0 
1380 550.23 0 
1381 550.49 0 
1382 550.76 0 
1383 551.03 0 
1384 551.3 0 
1385 551.56 0 
1386 551.83 0 
1387 552.1 0 
1388 552.36 0 
1389 552.63 0 
1390 552.9 0 
1391 553.16 0 
1392 553.43 0 
1393 553.7 0 
1394 553.96 0 
1395 554.23 0 
1396 554.5 0 
1397 554.77 0 
1398 555.03 0 
1399 555.3 0 
1400 555.57 0 
1401 555.83 0 
1402 556.1 0 
1403 556.37 0 
1404 556.63 0 
1405 556.9 0 
1406 557.17 0 
1407 557.44 0 
1408 557.7 0 
1409 557.97 0 
1410 558.24 0 
1411 558.5 0 
1412 558.77 0 
1413 559.04 0 
1414 559.31 0 
1415 559.57 0 
1416 559.84 0 
1417 560.11 0 
1418 560.37 0 
1419 560.64 0 
1420 560.91 0 
1421 561.18 0 
1422 561.44 0 
1423 561.71 0 
1424 561.98 0 
1425 562.24 0 
1426 562.51 0 
1427 562.78 0 
1428 563.05 0 
1429 563.31 0 
1430 563.58 0 
1431 563.85 0 
1432 564.12 0 
1433 564.38 0 
1434 564.65 0 
1435 564.92 0 
1436 565.19 0 
1437 565.45 0 
1438 565.72 0 
1439 565.99 0 
1440 566.25 0 
1441 566.52 0 
1442 566.79 0 
1443 567.06 0 
1444 567.32 0 
1445 567.59 0 
1446 567.86 0 
1447 568.13 0 
1448 568.39 0 
1449 568.66 0 
1450 568.93 0 
1451 569.2 0 
1452 569.46 0 
1453 569.73 0 
1454 570 0 
1455 570.27 0 
1456 570.53 0 
1457 570.8 0 
1458 571.07 0 
1459 571.34 0 
1460 571.6 0 
1461 571.87 0 
1462 572.14 0 
1463 572.41 0 
1464 572.68 0 
1465 572.94 0 
1466 573.21 0 
1467 573.48 0 
1468 573.75 0 
1469 574.01 0 
1470 574.28 0 
1471 574.55 0 
1472 574.82 0 
1473 575.09 0 
1474 575.35 0 
1475 575.62 0 
1476 575.89 0 
1477 576.16 0 
1478 576.42 0 
1479 576.69 0 
1480 576.96 0 
1481 577.23 0 
1482 577.5 0 
1483 577.76 0 
1484 578.03 0 
1485 578.3 0 
1486 578.57 0 
1487 578.84 0 
1488 579.1 0 
1489 579.37 0 
1490 579.64 0 
1491 579.91 0 
1492 580.18 0 
1493 580.44 0 
1494 580.71 0 
1495 580.98 0 
1496 581.25 0 
1497 581.52 0 
1498 581.78 0 
1499 582.05 0 
1500 582.32 0 
1501 582.59 0 
1502 582.86 0 
1503 583.12 0 
1504 583.39 0 
1505 583.66 0 
1506 583.93 0 
1507 584.2 0 
1508 584.47 0 
1509 584.73 0 
1510 585 0 
1511 585.27 0 
1512 585.54 0 
1513 585.81 0 
1514 586.07 0 
1515 586.34 0 
1516 586.61 0 
1517 586.88 0 
1518 587.15 0 
1519 587.41 0 
1520 587.68 0 
1521 587.95 0 
1522 588.22 0 
1523 588.49 0 
1524 588.76 0 
1525 589.02 0 
1526 589.29 0 
1527 589.56 0 
1528 589.83 0 
1529 590.1 0 
1530 590.36 0 
1531 590.63 0 
1532 590.9 0 
1533 591.17 0 
1534 591.44 0 
1535 591.71 0 
1536 591.97 0 
1537 592.24 0 
1538 592.51 0 
1539 592.78 0 
1540 593.05 0 
1541 593.31 0 
1542 593.58 0 
1543 593.85 0 
1544 594.12 0 
1545 594.39 0 
1546 594.66 0 
1547 594.92 0 
1548 595.19 0 
1549 595.46 0 
1550 595.73 0 
1551 596 0 
1552 596.26 0 
1553 596.53 0 
1554 596.8 0 
1555 597.07 0 
1556 597.34 0 
1557 597.6 0 
1558 597.87 0 
1559 598.14 0 
1560 598.41 0 
1561 598.68 0 
1562 598.94 0 
1563 599.21 0 
1564 599.48 0 
1565 599.75 0 
1566 600.02 0 
1567 600.28 0 
1568 600.55 0 
1569 600.82 0 
1570 601.09 0 
1571 601.35 0 
1572 601.62 0 
1573 601.89 0 
1574 602.16 0 
1575 602.43 0 
1576 602.69 0 
1577 602.96 0 
1578 603.23 0 
1579 603.5 0 
1580 603.76 0 
1581 604.03 0 
1582 604.3 0 
1583 604.57 0 
1584 604.84 0 
1585 605.1 0 
1586 605.37 0 
1587 605.64 0 
1588 605.91 0 
1589 606.17 0 
1590 606.44 0 
1591 606.71 0 
1592 606.98 0 
1593 607.24 0 
1594 607.51 0 
1595 607.78 0 
1596 608.05 0 
1597 608.31 0 
1598 608.58 0 
1599 608.85 0 
1600 609.11 0 
1601 609.38 0 
1602 609.65 0 
1603 609.92 0 
1604 610.18 0 
1605 610.45 0 
1606 610.72 0 
1607 610.99 0 
1608 611.25 0 
1609 611.52 0 
1610 611.79 0 
1611 612.05 0 
1612 612.32 0 
1613 612.59 0 
1614 612.86 0 
1615 613.12 0 
1616 613.39 0 
1617 613.66 0 
1618 613.92 0 
1619 614.19 0 
1620 614.46 0 
1621 614.73 0 
1622 614.99 0 
1623 615.26 0 
1624 615.53 0 
1625 615.79 0 
1626 616.06 0 
1627 616.33 0 
1628 616.6 0 
1629 616.86 0 
1630 617.13 0 
1631 617.4 0 
1632 617.66 0 
1633 617.93 0 
1634 618.2 0 
1635 618.46 0 
1636 618.73 0 
1637 619 0 
1638 619.26 0 
1639 619.53 0 
1640 619.8 0 
1641 620.07 0 
1642 620.33 0 
1643 620.6 0 
1644 620.87 0 
1645 621.13 0 
1646 621.4 0 
1647 621.67 0 
1648 621.93 0 
1649 622.2 0 
1650 622.47 0 
1651 622.73 0 
1652 623 0 
1653 623.27 0 
1654 623.53 0 
1655 623.8 0 
1656 624.07 0 
1657 624.33 0 
1658 624.6 0 
1659 624.87 0 
1660 625.13 0 
1661 625.4 0 
1662 625.67 0 
1663 625.93 0 
1664 626.2 0 
1665 626.47 0 
1666 626.73 0 
1667 627 0 
1668 627.27 0 
1669 627.53 0 
1670 627.8 0 
1671 628.07 0 
1672 628.33 0 
1673 628.6 0 
1674 628.87 0 
1675 629.13 0 
1676 629.4 0 
1677 629.67 0 
1678 629.93 0 
1679 630.2 0 
1680 630.47 0 
1681 630.73 0 
1682 631 0 
1683 631.27 0 
1684 631.53 0 
1685 631.8 0 
1686 632.07 0 
1687 632.33 0 
1688 632.6 0 
1689 632.87 0 
1690 633.13 0 
1691 633.4 0 
1692 633.67 0 
1693 633.93 0 
1694 634.2 0 
1695 634.47 0 
1696 634.73 0 
1697 635 0 
1698 635.27 0 
1699 635.53 0 
1700 635.8 0 
1701 636.06 0 
1702 636.33 0 
1703 636.6 0 
1704 636.86 0 
1705 637.13 0 
1706 637.4 0 
1707 637.66 0 
1708 637.93 0 
1709 638.2 0 
1710 638.46 0 
1711 638.73 0 
1712 639 0 
1713 639.26 0 
1714 639.53 0 
1715 639.8 0 
1716 640.06 0 
1717 640.33 0 
1718 640.6 0 
1719 640.86 0 
1720 641.13 0 
1721 641.39 0 
1722 641.66 0 
1723 641.93 0 
1724 642.19 0 
1725 642.46 0 
1726 642.73 0 
1727 642.99 0 
1728 643.26 0 
1729 643.53 0 
1730 643.79 0 
1731 644.06 0 
1732 644.33 0 
1733 644.59 0 
1734 644.86 0 
1735 645.13 0 
1736 645.39 0 
1737 645.66 0 
1738 645.93 0 
1739 646.19 0 
1740 646.46 0 
1741 646.72 0 
1742 646.99 0 
1743 647.26 0 
1744 647.52 0 
1745 647.79 0 
1746 648.06 0 
1747 648.32 0 
1748 648.59 0 
1749 648.86 0 
1750 649.12 0 
1751 649.39 0 
1752 649.66 0 
1753 649.92 0 
1754 650.19 0 
1755 650.46 0 
1756 650.72 0 
1757 650.99 0 
1758 651.25 0 
1759 651.52 0 
1760 651.79 0 
1761 652.05 0 
1762 652.32 0 
1763 652.59 0 
1764 652.85 0 
1765 653.12 0 
1766 653.39 0 
1767 653.65 0 
1768 653.92 0 
1769 654.19 0 
1770 654.45 0 
1771 654.72 0 
1772 654.99 0 
1773 655.25 0 
1774 655.52 0 
1775 655.79 0 
1776 656.05 0 
1777 656.32 0 
1778 656.59 0 
1779 656.85 0 
1780 657.12 0 
1781 657.39 0 
1782 657.65 0 
1783 657.92 0 
1784 658.18 0 
1785 658.45 0 
1786 658.72 0 
1787 658.98 0 
1788 659.25 0 
1789 659.52 0 
1790 659.78 0 
1791 660.05 0 
1792 660.32 0 
1793 660.58 0 
1794 660.85 0 
1795 661.12 0 
1796 661.38 0 
1797 661.65 0 
1798 661.92 0 
1799 662.18 0 
1800 662.45 0 
1801 662.72 0 
1802 662.98 0 
1803 663.25 0 
1804 663.52 0 
1805 663.78 0 
1806 664.05 0 
1807 664.32 0 
1808 664.58 0 
1809 664.85 0 
1810 665.12 0 
1811 665.38 0 
1812 665.65 0 
1813 665.92 0 
1814 666.18 0 
1815 666.45 0 
1816 666.72 0 
1817 666.98 0 
1818 667.25 0 
1819 667.52 0 
1820 667.78 0 
1821 668.05 0 
1822 668.32 0 
1823 668.59 0 
1824 668.85 0 
1825 669.12 0 
1826 669.39 0 
1827 669.65 0 
1828 669.92 0 
1829 670.19 0 
1830 670.45 0 
1831 670.72 0 
1832 670.99 0 
1833 671.25 0 
1834 671.52 0 
1835 671.79 0 
1836 672.05 0 
1837 672.32 0 
1838 672.59 0 
1839 672.85 0 
1840 673.12 0 
1841 673.39 0 
1842 673.66 0 
1843 673.92 0 
1844 674.19 0 
1845 674.46 0 
1846 674.72 0 
1847 674.99 0 
1848 675.26 0 
1849 675.52 0 
1850 675.79 0 
1851 676.06 0 
1852 676.33 0 
1853 676.59 0 
1854 676.86 0 
1855 677.13 0 
1856 677.39 0 
1857 677.66 0 
1858 677.93 0 
1859 678.19 0 
1860 678.46 0 
1861 678.73 0 
1862 679 0 
1863 679.26 0 
1864 679.53 0 
1865 679.8 0 
1866 680.06 0 
1867 680.33 0 
1868 680.6 0 
1869 680.87 0 
1870 681.13 0 
1871 681.4 0 
1872 681.67 0 
1873 681.94 0 
1874 682.2 0 
1875 682.47 0 
1876 682.74 0 
1877 683 0 
1878 683.27 0 
1879 683.54 0 
1880 683.81 0 
1881 684.07 0 
1882 684.34 0 
1883 684.61 0 
1884 684.88 0 
1885 685.14 0 
1886 685.41 0 
1887 685.68 0 
1888 685.95 0 
1889 686.21 0 
1890 686.48 0 
1891 686.75 0 
1892 687.02 0 
1893 687.28 0 
1894 687.55 0 
1895 687.82 0 
1896 688.09 0 
1897 688.35 0 
1898 688.62 0 
1899 688.89 0 
1900 689.16 0 
1901 689.42 0 
1902 689.69 0 
1903 689.96 0 
1904 690.23 0 
1905 690.49 0 
1906 690.76 0 
1907 691.03 0 
1908 691.3 0 
1909 691.56 0 
1910 691.83 0 
1911 692.1 0 
1912 692.37 0 
1913 692.64 0 
1914 692.9 0 
1915 693.17 0 
1916 693.44 0 
1917 693.71 0 
1918 693.97 0 
1919 694.24 0 
1920 694.51 0 
1921 694.78 0 
1922 695.05 0 
1923 695.31 0 
1924 695.58 0 
1925 695.85 0 
1926 696.12 0 
1927 696.39 0 
1928 696.65 0 
1929 696.92 0 
1930 697.19 0 
1931 697.46 0 
1932 697.73 0 
1933 697.99 0 
1934 698.26 0 
1935 698.53 0 
1936 698.8 0 
1937 699.07 0 
1938 699.33 0 
1939 699.6 0 
1940 699.87 0 
1941 700.14 0 
1942 700.41 0 
1943 700.68 0 
1944 700.94 0 
1945 701.21 0 
1946 701.48 0 
1947 701.75 0 
1948 702.02 0 
1949 702.28 0 
1950 702.55 0 
1951 702.82 0 
1952 703.09 0 
1953 703.36 0 
1954 703.63 0 
1955 703.9 0 
1956 704.16 0 
1957 704.43 0 
1958 704.7 0 
1959 704.97 0 
1960 705.24 0 
1961 705.51 0 
1962 705.77 0 
1963 706.04 0 
1964 706.31 0 
1965 706.58 0 
1966 706.85 0 
1967 707.12 0 
1968 707.39 0 
1969 707.66 0 
1970 707.92 0 
1971 708.19 0 
1972 708.46 0 
1973 708.73 0 
1974 709 0 
1975 709.27 0 
1976 709.54 0 
1977 709.81 0 
1978 710.07 0 
1979 710.34 0 
1980 710.61 0 
1981 710.88 0 
1982 711.15 0 
1983 711.42 0 
1984 711.69 0 
1985 711.96 0 
1986 712.23 0 
1987 712.5 0 
1988 712.76 0 
1989 713.03 0 
1990 713.3 0 
1991 713.57 0 
1992 713.84 0 
1993 714.11 0 
1994 714.38 0 
1995 714.65 0 
1996 714.92 0 
1997 715.19 0 
1998 715.46 0 
1999 715.73 0 
2000 715.99 0 
2001 716.26 0 
2002 716.53 0 
2003 716.8 0 
2004 717.07 0 
2005 717.34 0 
2006 717.61 0 
2007 717.88 0 
2008 718.15 0 
2009 718.42 0 
2010 718.69 0 
2011 718.96 0 
2012 719.23 0 
2013 719.5 0 
2014 719.77 0 
2015 720.04 0 
2016 720.31 0 
2017 720.58 0 
2018 720.85 0 
2019 721.12 0 
2020 721.39 0 
2021 721.66 0 
2022 721.93 0 
2023 722.19 0 
2024 722.46 0 
2025 722.73 0 
2026 723 0 
2027 723.27 0 
2028 723.54 0 
2029 723.81 0 
2030 724.08 0 
2031 724.35 0 
2032 724.62 0 
2033 724.89 0 
2034 725.16 0 
2035 725.43 0 
2036 725.7 0 
2037 725.98 0 
2038 726.25 0 
2039 726.52 0 
2040 726.79 0 
2041 727.06 0 
2042 727.33 0 
2043 727.6 0 
2044 727.87 0 
2045 728.14 0 
2046 728.41 0 
2047 728.68 0 
2048 728.95 0 
2049 729.22 0 
2050 729.49 0 
2051 729.76 0 
2052 730.03 0 
2053 730.3 0 
2054 730.57 0 
2055 730.84 0 
2056 731.11 0 
2057 731.38 0 
2058 731.65 0 
2059 731.92 0 
2060 732.2 0 
2061 732.47 0 
2062 732.74 0 
2063 733.01 0 
2064 733.28 0 
2065 733.55 0 
2066 733.82 0 
2067 734.09 0 
2068 734.36 0 
2069 734.63 0 
2070 734.9 0 
2071 735.17 0 
2072 735.44 0 
2073 735.71 0 
2074 735.98 0 
2075 736.25 0 
2076 736.52 0 
2077 736.79 0 
2078 737.06 0 
2079 737.33 0 
2080 737.59 0 
2081 737.86 0 
2082 738.13 0 
2083 738.4 0 
2084 738.67 0 
2085 738.94 0 
2086 739.2 0 
2087 739.47 0 
2088 739.74 0 
2089 740.01 0 
2090 740.28 0 
2091 740.54 0 
2092 740.81 0 
2093 741.08 0 
2094 741.34 0 
2095 741.61 0 
2096 741.88 0 
2097 742.14 0 
2098 742.41 0 
2099 742.68 0 
2100 742.94 0 
2101 743.21 0 
2102 743.47 0 
2103 743.74 0 
2104 744.01 0 
2105 744.27 0 
2106 744.54 0 
2107 744.8 0 
2108 745.07 0 
2109 745.33 0 
2110 745.6 0 
2111 745.86 0 
2112 746.13 0 
2113 746.39 0 
2114 746.66 0 
2115 746.92 0 
2116 747.19 0 
2117 747.45 0 
2118 747.72 0 
2119 747.98 0 
2120 748.25 0 
2121 748.51 0 
2122 748.78 0 
2123 749.04 0 
2124 749.31 0 
2125 749.57 0 
2126 749.83 0 
2127 750.1 0 
2128 750.36 0 
2129 750.63 0 
2130 750.89 0 
2131 751.16 0 
2132 751.42 0 
2133 751.68 0 
2134 751.95 0 
2135 752.21 0 
2136 752.48 0 
2137 752.74 0 
2138 753.01 0 
2139 753.27 0 
2140 753.53 0 
2141 753.8 0 
2142 754.06 0 
2143 754.33 0 
2144 754.59 0 
2145 754.86 0 
2146 755.12 0 
2147 755.39 0 
2148 755.65 0 
2149 755.91 0 
2150 756.18 0 
2151 756.44 0 
2152 756.71 0 
2153 756.97 0 
2154 757.24 0 
2155 757.5 0 
2156 757.77 0 
2157 758.03 0 
2158 758.3 0 
2159 758.56 0 
2160 758.83 0 
2161 759.1 0 
2162 759.36 0 
2163 759.63 0 
2164 759.89 0 
2165 760.16 0 
2166 760.42 0 
2167 760.69 0 
2168 760.96 0 
2169 761.22 0 
2170 761.49 0 
2171 761.76 0 
2172 762.02 0 
2173 762.29 0 
2174 762.55 0 
2175 762.82 0 
2176 763.09 0 
2177 763.36 0 
2178 763.62 0 
2179 763.89 0 
2180 764.16 0 
2181 764.42 0 
2182 764.69 0 
2183 764.96 0 
2184 765.23 0 
2185 765.5 0 
2186 765.76 0 
2187 766.03 0 
2188 766.3 0 
2189 766.57 0 
2190 766.84 0 
2191 767.1 0 
2192 767.37 0 
2193 767.64 0 
2194 767.91 0 
2195 768.18 0 
2196 768.45 0 
2197 768.71 0 
2198 768.98 0 
2199 769.25 0 
2200 769.52 0 
2201 769.79 0 
2202 770.06 0 
2203 770.33 0 
2204 770.6 0 
2205 770.87 0 
2206 771.13 0 
2207 771.4 0 
2208 771.67 0 
2209 771.94 0 
2210 772.21 0 
2211 772.48 0 
2212 772.75 0 
2213 773.02 0 
2214 773.29 0 
2215 773.56 0 
2216 773.83 0 
2217 774.1 0 
2218 774.37 0 
2219 774.64 0 
2220 774.91 0 
2221 775.18 0 
2222 775.45 0 
2223 775.72 0 
2224 775.99 0 
2225 776.26 0 
2226 776.53 0 
2227 776.8 0 
2228 777.07 0 
2229 777.34 0 
2230 777.6 0 
2231 777.87 0 
2232 778.14 0 
2233 778.41 0 
2234 778.68 0 
2235 778.95 0 
2236 779.22 0 
2237 779.49 0 
2238 779.76 0 
2239 780.03 0 
2240 780.3 0 
2241 780.57 0 
2242 780.84 0 
2243 781.11 0 
2244 781.38 0 
2245 781.65 0 
2246 781.92 0 
2247 782.19 0 
2248 782.46 0 
2249 782.73 0 
2250 783 0 
2251 783.27 0 
2252 783.54 0 
2253 783.81 0 
2254 784.08 0 
2255 784.35 0 
2256 784.62 0 
2257 784.89 0 
2258 785.16 0 
2259 785.43 0 
2260 785.7 0 
2261 785.97 0 
2262 786.24 0 
2263 786.5 0 
2264 786.77 0 
2265 787.04 0 
2266 787.31 0 
2267 787.58 0 
2268 787.85 0 
2269 788.12 0 
2270 788.39 0 
2271 788.66 0 
2272 788.93 0 
2273 789.19 0 
2274 789.46 0 
2275 789.73 0 
2276 790 0 
2277 790.27 0 
2278 790.54 0 
2279 790.8 0 
2280 791.07 0 
2281 791.34 0 
2282 791.61 0 
2283 791.88 0 
2284 792.15 0 
2285 792.41 0 
2286 792.68 0 
2287 792.95 0 
2288 793.22 0 
2289 793.48 0 
2290 793.75 0 
2291 794.02 0 
2292 794.29 0 
2293 794.55 0 
2294 794.82 0 
2295 795.09 0 
2296 795.35 0 
2297 795.62 0 
2298 795.89 0 
2299 796.15 0 
2300 796.42 0 
2301 796.69 0 
2302 796.95 0 
2303 797.22 0 
2304 797.49 0 
2305 797.75 0 
2306 798.02 0 
2307 798.29 0 
2308 798.55 0 
2309 798.82 0 
2310 799.08 0 
2311 799.35 0 
2312 799.62 0 
2313 799.88 0 
2314 800.15 0 
2315 800.41 0 
2316 800.68 0 
2317 800.95 0 
2318 801.21 0 
2319 801.48 0 
2320 801.75 0 
2321 802.01 0 
2322 802.28 0 
2323 802.55 0 
2324 802.81 0 
2325 803.08 0 
2326 803.35 0 
2327 803.61 0 
2328 803.88 0 
2329 804.15 0 
2330 804.41 0 
2331 804.68 0 
2332 804.95 0 
2333 805.21 0 
2334 805.48 0 
2335 805.75 0 
2336 806.02 0 
2337 806.28 0 
2338 806.55 0 
2339 806.82 0 
2340 807.08 0 
2341 807.35 0 
2342 807.62 0 
2343 807.89 0 
2344 808.15 0 
2345 808.42 0 
2346 808.69 0 
2347 808.96 0 
2348 809.22 0 
2349 809.49 0 
2350 809.76 0 
2351 810.03 0 
2352 810.29 0 
2353 810.56 0 
2354 810.83 0 
2355 811.1 0 
2356 811.36 0 
2357 811.63 0 
2358 811.9 0 
2359 812.17 0 
2360 812.43 0 
2361 812.7 0 
2362 812.97 0 
2363 813.24 0 
2364 813.51 0 
2365 813.77 0 
2366 814.04 0 
2367 814.31 0 
2368 814.58 0 
2369 814.85 0 
2370 815.11 0 
2371 815.38 0 
2372 815.65 0 
2373 815.92 0 
2374 816.19 0 
2375 816.45 0 
2376 816.72 0 
2377 816.99 0 
2378 817.26 0 
2379 817.53 0 
2380 817.79 0 
2381 818.06 0 
2382 818.33 0 
2383 818.6 0 
2384 818.87 0 
2385 819.14 0 
2386 819.4 0 
2387 819.67 0 
2388 819.94 0 
2389 820.21 0 
2390 820.48 0 
2391 820.74 0 
2392 821.01 0 
2393 821.28 0 
2394 821.55 0 
2395 821.82 0 
2396 822.09 0 
2397 822.35 0 
2398 822.62 0 
2399 822.89 0 
2400 823.16 0 
2401 823.43 0 
2402 823.69 0 
2403 823.96 0 
2404 824.23 0 
2405 824.5 0 
2406 824.77 0 
2407 825.04 0 
2408 825.3 0 
2409 825.57 0 
2410 825.84 0 
2411 826.11 0 
2412 826.38 0 
2413 826.64 0 
2414 826.91 0 
2415 827.18 0 
2416 827.45 0 
2417 827.72 0 
2418 827.98 0 
2419 828.25 0 
2420 828.52 0 
2421 828.79 0 
2422 829.06 0 
2423 829.32 0 
2424 829.59 0 
2425 829.86 0 
2426 830.13 0 
2427 830.4 0 
2428 830.66 0 
2429 830.93 0 
2430 831.2 0 
2431 831.47 0 
2432 831.73 0 
2433 832 0 
2434 832.27 0 
2435 832.54 0 
2436 832.81 0 
2437 833.07 0 
2438 833.34 0 
2439 833.61 0 
2440 833.88 0 
2441 834.14 0 
2442 834.41 0 
2443 834.68 0 
2444 834.95 0 
2445 835.21 0 
2446 835.48 0 
2447 835.75 0 
2448 836.01 0 
2449 836.28 0 
2450 836.55 0 
2451 836.82 0 
2452 837.08 0 
2453 837.35 0 
2454 837.62 0 
2455 837.89 0 
2456 838.15 0 
2457 838.42 0 
2458 838.69 0 
2459 838.95 0 
2460 839.22 0 
2461 839.49 0 
2462 839.75 0 
2463 840.02 0 
2464 840.29 0 
2465 840.55 0 
2466 840.82 0 
2467 841.09 0 
2468 841.35 0 
2469 841.62 0 
2470 841.89 0 
2471 842.15 0 
2472 842.42 0 
2473 842.68 0 
2474 842.95 0 
2475 843.22 0 
2476 843.48 0 
2477 843.75 0 
2478 844.02 0 
2479 844.28 0 
2480 844.55 0 
2481 844.81 0 
2482 845.08 0 
2483 845.35 0 
2484 845.61 0 
2485 845.88 0 
2486 846.14 0 
2487 846.41 0 
2488 846.68 0 
2489 846.94 0 
2490 847.21 0 
2491 847.47 0 
2492 847.74 0 
2493 848 0 
2494 848.27 0 
2495 848.54 0 
2496 848.8 0 
2497 849.07 0 
2498 849.33 0 
2499 849.6 0 
2500 849.86 0 
2501 850.13 0 
2502 850.39 0 
2503 850.66 0 
2504 850.93 0 
2505 851.19 0 
2506 851.46 0 
2507 851.72 0 
2508 851.99 0 
2509 852.25 0 
2510 852.52 0 
2511 852.78 0 
2512 853.05 0 
2513 853.31 0 
2514 853.58 0 
2515 853.85 0 
2516 854.11 0 
2517 854.38 0 
2518 854.64 0 
2519 854.91 0 
2520 855.17 0 
2521 855.44 0 
2522 855.7 0 
2523 855.97 0 
2524 856.23 0 
2525 856.5 0 
2526 856.76 0 
2527 857.03 0 
2528 857.3 0 
2529 857.56 0 
2530 857.83 0 
2531 858.09 0 
2532 858.36 0 
2533 858.62 0 
2534 858.89 0 
2535 859.15 0 
2536 859.42 0 
2537 859.69 0 
2538 859.95 0 
2539 860.22 0 
2540 860.48 0 
2541 860.75 0 
2542 861.01 0 
2543 861.28 0 
2544 861.55 0 
2545 861.81 0 
2546 862.08 0 
2547 862.34 0 
2548 862.61 0 
2549 862.87 0 
2550 863.14 0 
2551 863.41 0 
2552 863.67 0 
2553 863.94 0 
2554 864.2 0 
2555 864.47 0 
2556 864.74 0 
2557 865 0 
2558 865.27 0 
2559 865.53 0 
2560 865.8 0 
2561 866.07 0 
2562 866.33 0 
2563 866.6 0 
2564 866.87 0 
2565 867.13 0 
2566 867.4 0 
2567 867.67 0 
2568 867.93 0 
2569 868.2 0 
2570 868.47 0 
2571 868.73 0 
2572 869 0 
2573 869.27 0 
2574 869.53 0 
2575 869.8 0 
2576 870.07 0 
2577 870.33 0 
2578 870.6 0 
2579 870.87 0 
2580 871.13 0 
2581 871.4 0 
2582 871.67 0 
2583 871.94 0 
2584 872.2 0 
2585 872.47 0 
2586 872.74 0 
2587 873.01 0 
2588 873.27 0 
2589 873.54 0 
2590 873.81 0 
2591 874.08 0 
2592 874.34 0 
2593 874.61 0 
2594 874.88 0 
2595 875.15 0 
2596 875.42 0 
2597 875.68 0 
2598 875.95 0 
2599 876.22 0 
2600 876.49 0 
2601 876.76 0 
2602 877.02 0 
2603 877.29 0 
2604 877.56 0 
2605 877.83 0 
2606 878.1 0 
2607 878.37 0 
2608 878.63 0 
2609 878.9 0 
2610 879.17 0 
2611 879.44 0 
2612 879.71 0 
2613 879.98 0 
2614 880.25 0 
2615 880.51 0 
2616 880.78 0 
2617 881.05 0 
2618 881.32 0 
2619 881.59 0 
2620 881.86 0 
2621 882.13 0 
2622 882.39 0 
2623 882.66 0 
2624 882.93 0 
2625 883.2 0 
2626 883.47 0 
2627 883.74 0 
2628 884.01 0 
2629 884.27 0 
2630 884.54 0 
2631 884.81 0 
2632 885.08 0 
2633 885.35 0 
2634 885.62 0 
2635 885.89 0 
2636 886.16 0 
2637 886.42 0 
2638 886.69 0 
2639 886.96 0 
2640 887.23 0 
2641 887.5 0 
2642 887.77 0 
2643 888.04 0 
2644 888.3 0 
2645 888.57 0 
2646 888.84 0 
2647 889.11 0 
2648 889.38 0 
2649 889.65 0 
2650 889.92 0 
2651 890.18 0 
2652 890.45 0 
2653 890.72 0 
2654 890.99 0 
2655 891.26 0 
2656 891.53 0 
2657 891.79 0 
2658 892.06 0 
2659 892.33 0 
2660 892.6 0 
2661 892.87 0 
2662 893.14 0 
2663 893.4 0 
2664 893.67 0 
2665 893.94 0 
2666 894.21 0 
2667 894.48 0 
2668 894.74 0 
2669 895.01 0 
2670 895.28 0 
2671 895.55 0 
2672 895.82 0 
2673 896.08 0 
2674 896.35 0 
2675 896.62 0 
2676 896.89 0 
2677 897.16 0 
2678 897.42 0 
2679 897.69 0 
2680 897.96 0 
2681 898.23 0 
2682 898.49 0 
2683 898.76 0 
2684 899.03 0 
2685 899.3 0 
2686 899.56 0 
2687 899.83 0 
2688 900.1 0 
2689 900.37 0 
2690 900.64 0 
2691 900.9 0 
2692 901.17 0 
2693 901.44 0 
2694 901.71 0 
2695 901.97 0 
2696 902.24 0 
2697 902.51 0 
2698 902.77 0 
2699 903.04 0 
2700 903.31 0 
2701 903.58 0 
2702 903.84 0 
2703 904.11 0 
2704 904.38 0 
2705 904.65 0 
2706 904.91 0 
2707 905.18 0 
2708 905.45 0 
2709 905.72 0 
2710 905.98 0 
2711 906.25 0 
2712 906.52 0 
2713 906.78 0 
2714 907.05 0 
2715 907.32 0 
2716 907.59 0 
2717 907.85 0 
2718 908.12 0 
2719 908.39 0 
2720 908.65 0 
2721 908.92 0 
2722 909.19 0 
2723 909.45 0 
2724 909.72 0 
2725 909.99 0 
2726 910.26 0 
2727 910.52 0 
2728 910.79 0 
2729 911.06 0 
2730 911.32 0 
2731 911.59 0 
2732 911.86 0 
2733 912.12 0 
2734 912.39 0 
2735 912.66 0 
2736 912.92 0 
2737 913.19 0 
2738 913.46 0 
2739 913.72 0 
2740 913.99 0 
2741 914.26 0 
2742 914.53 0 
2743 914.79 0 
2744 915.06 0 
2745 915.33 0 
2746 915.59 0 
2747 915.86 0 
2748 916.13 0 
2749 916.39 0 
2750 916.66 0 
2751 916.93 0 
2752 917.19 0 
2753 917.46 0 
2754 917.73 0 
2755 917.99 0 
2756 918.26 0 
2757 918.53 0 
2758 918.79 0 
2759 919.06 0 
2760 919.32 0 
2761 919.59 0 
2762 919.86 0 
2763 920.12 0 
2764 920.39 0 
2765 920.66 0 
2766 920.92 0 
2767 921.19 0 
2768 921.46 0 
2769 921.72 0 
2770 921.99 0 
2771 922.26 0 
2772 922.52 0 
2773 922.79 0 
2774 923.06 0 
2775 923.32 0 
2776 923.59 0 
2777 923.85 0 
2778 924.12 0 
2779 924.39 0 
2780 924.65 0 
2781 924.92 0 
2782 925.19 0 
2783 925.45 0 
2784 925.72 0 
2785 925.99 0 
2786 926.25 0 
2787 926.52 0 
2788 926.78 0 
2789 927.05 0 
2790 927.32 0 
2791 927.58 0 
2792 927.85 0 
2793 928.12 0 
2794 928.38 0 
2795 928.65 0 
2796 928.92 0 
2797 929.18 0 
2798 929.45 0 
2799 929.71 0 
2800 929.98 0 
2801 930.25 0 
2802 930.51 0 
2803 930.78 0 
2804 931.05 0 
2805 931.31 0 
2806 931.58 0 
2807 931.84 0 
2808 932.11 0 
2809 932.38 0 
2810 932.64 0 
2811 932.91 0 
2812 933.18 0 
2813 933.44 0 
2814 933.71 0 
2815 933.97 0 
2816 934.24 0 
2817 934.51 0 
2818 934.77 0 
2819 935.04 0 
2820 935.31 0 
2821 935.57 0 
2822 935.84 0 
2823 936.1 0 
2824 936.37 0 
2825 936.64 0 
2826 936.9 0 
2827 937.17 0 
2828 937.43 0 
2829 937.7 0 
2830 937.97 0 
2831 938.23 0 
2832 938.5 0 
2833 938.77 0 
2834 939.03 0 
2835 939.3 0 
2836 939.56 0 
2837 939.83 0 
2838 940.1 0 
2839 940.36 0 
2840 940.63 0 
2841 940.9 0 
2842 941.16 0 
2843 941.43 0 
2844 941.69 0 
2845 941.96 0 
2846 942.23 0 
2847 942.49 0 
2848 942.76 0 
2849 943.03 0 
2850 943.29 0 
2851 943.56 0 
2852 943.82 0 
2853 944.09 0 
2854 944.36 0 
2855 944.62 0 
2856 944.89 0 
2857 945.15 0 
2858 945.42 0 
2859 945.69 0 
2860 945.95 0 
2861 946.22 0 
2862 946.49 0 
2863 946.75 0 
2864 947.02 0 
2865 947.28 0 
2866 947.55 0 
2867 947.82 0 
2868 948.08 0 
2869 948.35 0 
2870 948.62 0 
2871 948.88 0 
2872 949.15 0 
2873 949.41 0 
2874 949.68 0 
2875 949.95 0 
2876 950.21 0 
2877 950.48 0 
2878 950.75 0 
2879 951.01 0 
2880 951.28 0 
2881 951.54 0 
2882 951.81 0 
2883 952.08 0 
2884 952.34 0 
2885 952.61 0 
2886 952.88 0 
2887 953.14 0 
2888 953.41 0 
2889 953.67 0 
2890 953.94 0 
2891 954.21 0 
2892 954.47 0 
2893 954.74 0 
2894 955 0 
2895 955.27 0 
2896 955.54 0 
2897 955.8 0 
2898 956.07 0 
2899 956.34 0 
2900 956.6 0 
2901 956.87 0 
2902 957.13 0 
2903 957.4 0 
2904 957.67 0 
2905 957.93 0 
2906 958.2 0 
2907 958.47 0 
2908 958.73 0 
2909 959 0 
2910 959.26 0 
2911 959.53 0 
2912 959.8 0 
2913 960.06 0 
2914 960.33 0 
2915 960.6 0 
2916 960.86 0 
2917 961.13 0 
2918 961.39 0 
2919 961.66 0 
2920 961.93 0 
2921 962.19 0 
2922 962.46 0 
2923 962.72 0 
2924 962.99 0 
2925 963.26 0 
2926 963.52 0 
2927 963.79 0 
2928 964.06 0 
2929 964.32 0 
2930 964.59 0 
2931 964.85 0 
2932 965.12 0 
2933 965.39 0 
2934 965.65 0 
2935 965.92 0 
2936 966.19 0 
2937 966.45 0 
2938 966.72 0 
2939 966.98 0 
2940 967.25 0 
2941 967.52 0 
2942 967.78 0 
2943 968.05 0 
2944 968.32 0 
2945 968.58 0 
2946 968.85 0 
2947 969.11 0 
2948 969.38 0 
2949 969.65 0 
2950 969.91 0 
2951 970.18 0 
2952 970.45 0 
2953 970.71 0 
2954 970.98 0 
2955 971.24 0 
2956 971.51 0 
2957 971.78 0 
2958 972.04 0 
2959 972.31 0 
2960 972.57 0 
2961 972.84 0 
2962 973.11 0 
2963 973.37 0 
2964 973.64 0 
2965 973.91 0 
2966 974.17 0 
2967 974.44 0 
2968 974.7 0 
2969 974.97 0 
2970 975.24 0 
2971 975.5 0 
2972 975.77 0 
2973 976.04 0 
2974 976.3 0 
2975 976.57 0 
2976 976.83 0 
2977 977.1 0 
2978 977.37 0 
2979 977.63 0 
2980 977.9 0 
2981 978.17 0 
2982 978.43 0 
2983 978.7 0 
2984 978.96 0 
2985 979.23 0 
2986 979.5 0 
2987 979.76 0 
2988 980.03 0 
2989 980.29 0 
2990 980.56 0 
2991 980.83 0 
2992 981.09 0 
2993 981.36 0 
2994 981.63 0 
2995 981.89 0 
2996 982.16 0 
2997 982.42 0 
2998 982.69 0 
2999 982.96 0 
3000 983.22 0 
3001 983.49 0 
3002 983.76 0 
3003 984.02 0 
3004 984.29 0 
3005 984.55 0 
3006 984.82 0 
3007 985.09 0 
3008 985.35 0 
3009 985.62 0 
3010 985.89 0 
3011 986.15 0 
3012 986.42 0 
3013 986.68 0 
3014 986.95 0 
3015 987.22 0 
3016 987.48 0 
3017 987.75 0 
3018 988.02 0 
3019 988.28 0 
3020 988.55 0 
3021 988.81 0 
3022 989.08 0 
3023 989.35 0 
3024 989.61 0 
3025 989.88 0 
3026 990.14 0 
3027 990.41 0 
3028 990.68 0 
3029 990.94 0 
3030 991.21 0 
3031 991.48 0 
3032 991.74 0 
3033 992.01 0 
3034 992.27 0 
3035 992.54 0 
3036 992.81 0 
3037 993.07 0 
3038 993.34 0 
3039 993.61 0 
3040 993.87 0 
3041 994.14 0 
3042 994.4 0 
3043 994.67 0 
3044 994.94 0 
3045 995.2 0 
3046 995.47 0 
3047 995.74 0 
3048 996 0 
3049 996.27 0 
3050 996.53 0 
3051 996.8 0 
3052 997.07 0 
3053 997.33 0 
3054 997.6 0 
3055 997.86 0 
3056 998.13 0 
3057 998.4 0 
3058 998.66 0 
3059 998.93 0 
3060 999.2 0 
3061 999.46 0 
3062 999.73 0 
3063 999.99 0 
3064 1000.26 0 
3065 1000.53 0 
3066 1000.79 0 
3067 1001.06 0 
3068 1001.33 0 
3069 1001.59 0 
3070 1001.86 0 
3071 1002.12 0 
3072 1002.39 0 
3073 1002.66 0 
3074 1002.92 0 
3075 1003.19 0 
3076 1003.46 0 
3077 1003.72 0 
3078 1003.99 0 
3079 1004.25 0 
3080 1004.52 0 
3081 1004.79 0 
3082 1005.05 0 
3083 1005.32 0 
3084 1005.59 0 
3085 1005.85 0 
3086 1006.12 0 
3087 1006.38 0 
3088 1006.65 0 
3089 1006.92 0 
3090 1007.18 0 
3091 1007.45 0 
3092 1007.71 0 
3093 1007.98 0 
3094 1008.25 0 
3095 1008.51 0 
3096 1008.78 0 
3097 1009.05 0 
3098 1009.31 0 
3099 1009.58 0 
3100 1009.84 0 
3101 1010.11 0 
3102 1010.38 0 
3103 1010.64 0 
3104 1010.91 0 
3105 1011.18 0 
3106 1011.44 0 
3107 1011.71 0 
3108 1011.97 0 
3109 1012.24 0 
3110 1012.51 0 
3111 1012.77 0 
3112 1013.04 0 
3113 1013.31 0 
3114 1013.57 0 
3115 1013.84 0 
3116 1014.1 0 
3117 1014.37 0 
3118 1014.64 0 
3119 1014.9 0 
3120 1015.17 0 
3121 1015.43 0 
3122 1015.7 0 
3123 1015.97 0 
3124 1016.23 0 
3125 1016.5 0 
3126 1016.77 0 
3127 1017.03 0 
3128 1017.3 0 
3129 1017.56 0 
3130 1017.83 0 
3131 1018.1 0 
3132 1018.36 0 
3133 1018.63 0 
3134 1018.9 0 
3135 1019.16 0 
3136 1019.43 0 
3137 1019.69 0 
3138 1019.96 0 
3139 1020.23 0 
3140 1020.49 0 
3141 1020.76 0 
3142 1021.03 0 
3143 1021.29 0 
3144 1021.56 0 
3145 1021.82 0 
3146 1022.09 0 
3147 1022.36 0 
3148 1022.62 0 
3149 1022.89 0 
3150 1023.16 0 
3151 1023.42 0 
3152 1023.69 0 
3153 1023.95 0 
3154 1024.22 0 
3155 1024.49 0 
3156 1024.75 0 
3157 1025.02 0 
3158 1025.28 0 
3159 1025.55 0 
3160 1025.82 0 
3161 1026.08 0 
3162 1026.35 0 
3163 1026.62 0 
3164 1026.88 0 
3165 1027.15 0 
3166 1027.41 0 
3167 1027.68 0 
3168 1027.95 0 
3169 1028.21 0 
3170 1028.48 0 
3171 1028.75 0 
3172 1029.01 0 
3173 1029.28 0 
3174 1029.54 0 
3175 1029.81 0 
3176 1030.08 0 
3177 1030.34 0 
3178 1030.61 0 
3179 1030.88 0 
3180 1031.14 0 
3181 1031.41 0 
3182 1031.67 0 
3183 1031.94 0 
3184 1032.21 0 
3185 1032.47 0 
3186 1032.74 0 
3187 1033 0 
3188 1033.27 0 
3189 1033.54 0 
3190 1033.8 0 
3191 1034.07 0 
3192 1034.34 0 
3193 1034.6 0 
3194 1034.87 0 
3195 1035.13 0 
3196 1035.4 0 
3197 1035.67 0 
3198 1035.93 0 
3199 1036.2 0 
3200 1036.47 0 
3201 1036.73 0 
3202 1037 0 
3203 1037.26 0 
3204 1037.53 0 
3205 1037.8 0 
3206 1038.06 0 
3207 1038.33 0 
3208 1038.6 0 
3209 1038.86 0 
3210 1039.13 0 
3211 1039.39 0 
3212 1039.66 0 
3213 1039.93 0 
3214 1040.19 0 
3215 1040.46 0 
3216 1040.73 0 
3217 1040.99 0 
3218 1041.26 0 
3219 1041.52 0 
3220 1041.79 0 
3221 1042.06 0 
3222 1042.32 0 
3223 1042.59 0 
3224 1042.85 0 
3225 1043.12 0 
3226 1043.39 0 
3227 1043.65 0 
3228 1043.92 0 
3229 1044.19 0 
3230 1044.45 0 
3231 1044.72 0 
3232 1044.98 0 
3233 1045.25 0 
3234 1045.52 0 
3235 1045.78 0 
3236 1046.05 0 
3237 1046.32 0 
3238 1046.58 0 
3239 1046.85 0 
3240 1047.11 0 
3241 1047.38 0 
3242 1047.65 0 
3243 1047.91 0 
3244 1048.18 0 
3245 1048.45 0 
3246 1048.71 0 
3247 1048.98 0 
3248 1049.24 0 
3249 1049.51 0 
3250 1049.78 0 
3251 1050.04 0 
3252 1050.31 0 
3253 1050.57 0 
3254 1050.84 0 
3255 1051.11 0 
3256 1051.37 0 
3257 1051.64 0 
3258 1051.91 0 
3259 1052.17 0 
3260 1052.44 0 
3261 1052.7 0 
3262 1052.97 0 
3263 1053.24 0 
3264 1053.5 0 
3265 1053.77 0 
3266 1054.04 0 
3267 1054.3 0 
3268 1054.57 0 
3269 1054.83 0 
3270 1055.1 0 
3271 1055.37 0 
3272 1055.63 0 
3273 1055.9 0 
3274 1056.17 0 
3275 1056.43 0 
3276 1056.7 0 
3277 1056.96 0 
3278 1057.23 0 
3279 1057.5 0 
3280 1057.76 0 
3281 1058.03 0 
3282 1058.3 0 
3283 1058.56 0 
3284 1058.83 0 
3285 1059.09 0 
3286 1059.36 0 
3287 1059.63 0 
3288 1059.89 0 
3289 1060.16 0 
3290 1060.42 0 
3291 1060.69 0 
3292 1060.96 0 
3293 1061.22 0 
3294 1061.49 0 
3295 1061.76 0 
3296 1062.02 0 
3297 1062.29 0 
3298 1062.55 0 
3299 1062.82 0 
3300 1063.09 0 
3301 1063.35 0 
3302 1063.62 0 
3303 1063.89 0 
3304 1064.15 0 
3305 1064.42 0 
3306 1064.68 0 
3307 1064.95 0 
3308 1065.22 0 
3309 1065.48 0 
3310 1065.75 0 
3311 1066.02 0 
3312 1066.28 0 
3313 1066.55 0 
3314 1066.81 0 
3315 1067.08 0 
3316 1067.35 0 
3317 1067.61 0 
3318 1067.88 0 
3319 1068.14 0 
3320 1068.41 0 
3321 1068.68 0 
3322 1068.94 0 
3323 1069.21 0 
3324 1069.48 0 
3325 1069.74 0 
3326 1070.01 0 
3327 1070.27 0 
3328 1070.54 0 
3329 1070.81 0 
3330 1071.07 0 
3331 1071.34 0 
3332 1071.61 0 
3333 1071.87 0 
3334 1072.14 0 
3335 1072.4 0 
3336 1072.67 0 
3337 1072.94 0 
3338 1073.2 0 
3339 1073.47 0 
3340 1073.74 0 
3341 1074 0 
3342 1074.27 0 
3343 1074.53 0 
3344 1074.8 0 
3345 1075.07 0 
3346 1075.33 0 
3347 1075.6 0 
3348 1075.87 0 
3349 1076.13 0 
3350 1076.4 0 
3351 1076.66 0 
3352 1076.93 0 
3353 1077.2 0 
3354 1077.46 0 
3355 1077.73 0 
3356 1077.99 0 
3357 1078.26 0 
3358 1078.53 0 
3359 1078.79 0 
3360 1079.06 0 
3361 1079.33 0 
3362 1079.59 0 
3363 1079.86 0 
3364 1080.12 0 
3365 1080.39 0 
3366 1080.66 0 
3367 1080.92 0 
3368 1081.19 0 
3369 1081.46 0 
3370 1081.72 0 
3371 1081.99 0 
3372 1082.25 0 
3373 1082.52 0 
3374 1082.79 0 
3375 1083.05 0 
3376 1083.32 0 
3377 1083.59 0 
3378 1083.85 0 
3379 1084.12 0 
3380 1084.38 0 
3381 1084.65 0 
3382 1084.92 0 
3383 1085.18 0 
3384 1085.45 0 
3385 1085.71 0 
3386 1085.98 0 
3387 1086.25 0 
3388 1086.51 0 
3389 1086.78 0 
3390 1087.05 0 
3391 1087.31 0 
3392 1087.58 0 
3393 1087.84 0 
3394 1088.11 0 
3395 1088.38 0 
3396 1088.64 0 
3397 1088.91 0 
3398 1089.18 0 
3399 1089.44 0 
3400 1089.71 0 
3401 1089.97 0 
3402 1090.24 0 
3403 1090.51 0 
3404 1090.77 0 
3405 1091.04 0 
3406 1091.31 0 
3407 1091.57 0 
3408 1091.84 0 
3409 1092.1 0 
3410 1092.37 0 
3411 1092.64 0 
3412 1092.9 0 
3413 1093.17 0 
3414 1093.44 0 
3415 1093.7 0 
3416 1093.97 0 
3417 1094.23 0 
3418 1094.5 0 
3419 1094.77 0 
3420 1095.03 0 
3421 1095.3 0 
3422 1095.56 0 
3423 1095.83 0 
3424 1096.1 0 
3425 1096.36 0 
3426 1096.63 0 
3427 1096.9 0 
3428 1097.16 0 
3429 1097.43 0 
3430 1097.69 0 
3431 1097.96 0 
3432 1098.23 0 
3433 1098.49 0 
3434 1098.76 0 
3435 1099.03 0 
3436 1099.29 0 
3437 1099.56 0 
3438 1099.82 0 
3439 1100.09 0 
3440 1100.36 0 
3441 1100.62 0 
3442 1100.89 0 
3443 1101.16 0 
3444 1101.42 0 
3445 1101.69 0 
3446 1101.95 0 
3447 1102.22 0 
3448 1102.49 0 
3449 1102.75 0 
3450 1103.02 0 
3451 1103.28 0 
3452 1103.55 0 
3453 1103.82 0 
3454 1104.08 0 
3455 1104.35 0 
3456 1104.62 0 
3457 1104.88 0 
3458 1105.15 0 
3459 1105.41 0 
3460 1105.68 0 
3461 1105.95 0 
3462 1106.21 0 
3463 1106.48 0 
3464 1106.75 0 
3465 1107.01 0 
3466 1107.28 0 
3467 1107.54 0 
3468 1107.81 0 
3469 1108.08 0 
3470 1108.34 0 
3471 1108.61 0 
3472 1108.88 0 
3473 1109.14 0 
3474 1109.41 0 
3475 1109.67 0 
3476 1109.94 0 
3477 1110.21 0 
3478 1110.47 0 
3479 1110.74 0 
3480 1111.01 0 
3481 1111.27 0 
3482 1111.54 0 
3483 1111.8 0 
3484 1112.07 0 
3485 1112.34 0 
3486 1112.6 0 
3487 1112.87 0 
3488 1113.13 0 
3489 1113.4 0 
3490 1113.67 0 
3491 1113.93 0 
3492 1114.2 0 
3493 1114.47 0 
3494 1114.73 0 
3495 1115 0 
3496 1115.26 0 
3497 1115.53 0 
3498 1115.8 0 
3499 1116.06 0 
3500 1116.33 0 
3501 1116.6 0 
3502 1116.86 0 
3503 1117.13 0 
3504 1117.39 0 
3505 1117.66 0 
3506 1117.93 0 
3507 1118.19 0 
3508 1118.46 0 
3509 1118.73 0 
3510 1118.99 0 
3511 1119.26 0 
3512 1119.52 0 
3513 1119.79 0 
3514 1120.06 0 
3515 1120.32 0 
3516 1120.59 0 
3517 1120.85 0 
3518 1121.12 0 
3519 1121.39 0 
3520 1121.65 0 
3521 1121.92 0 
3522 1122.19 0 
3523 1122.45 0 
3524 1122.72 0 
3525 1122.98 0 
3526 1123.25 0 
3527 1123.52 0 
3528 1123.78 0 
3529 1124.05 0 
3530 1124.32 0 
3531 1124.58 0 
3532 1124.85 0 
3533 1125.11 0 
3534 1125.38 0 
3535 1125.65 0 
3536 1125.91 0 
3537 1126.18 0 
3538 1126.45 0 
3539 1126.71 0 
3540 1126.98 0 
3541 1127.24 0 
3542 1127.51 0 
3543 1127.78 0 
3544 1128.04 0 
3545 1128.31 0 
3546 1128.58 0 
3547 1128.84 0 
3548 1129.11 0 
3549 1129.37 0 
3550 1129.64 0 
3551 1129.91 0 
3552 1130.17 0 
3553 1130.44 0 
3554 1130.7 0 
3555 1130.97 0 
3556 1131.24 0 
3557 1131.5 0 
3558 1131.77 0 
3559 1132.04 0 
3560 1132.3 0 
3561 1132.57 0 
3562 1132.83 0 
3563 1133.1 0 
3564 1133.37 0 
3565 1133.63 0 
3566 1133.9 0 
3567 1134.17 0 
3568 1134.43 0 
3569 1134.7 0 
3570 1134.96 0 
3571 1135.23 0 
3572 1135.5 0 
3573 1135.76 0 
3574 1136.03 0 
3575 1136.3 0 
3576 1136.56 0 
3577 1136.83 0 
3578 1137.09 0 
3579 1137.36 0 
3580 1137.63 0 
3581 1137.89 0 
3582 1138.16 0 
3583 1138.42 0 
3584 1138.69 0 
3585 1138.96 0 
3586 1139.22 0 
3587 1139.49 0 
3588 1139.76 0 
3589 1140.02 0 
3590 1140.29 0 
3591 1140.55 0 
3592 1140.82 0 
3593 1141.09 0 
3594 1141.35 0 
3595 1141.62 0 
3596 1141.89 0 
3597 1142.15 0 
3598 1142.42 0 
3599 1142.68 0 
3600 1142.95 0 
3601 1143.22 0 
3602 1143.48 0 
3603 1143.75 0 
3604 1144.02 0 
3605 1144.28 0 
3606 1144.55 0 
3607 1144.81 0 
3608 1145.08 0 
3609 1145.35 0 
3610 1145.61 0 
3611 1145.88 0 
3612 1146.15 0 
3613 1146.41 0 
3614 1146.68 0 
3615 1146.94 0 
3616 1147.21 0 
3617 1147.48 0 
3618 1147.74 0 
3619 1148.01 0 
3620 1148.27 0 
3621 1148.54 0 
3622 1148.81 0 
3623 1149.07 0 
3624 1149.34 0 
3625 1149.61 0 
3626 1149.87 0 
3627 1150.14 0 
3628 1150.4 0 
3629 1150.67 0 
3630 1150.94 0 
3631 1151.2 0 
3632 1151.47 0 
3633 1151.74 0 
3634 1152 0 
3635 1152.27 0 
3636 1152.53 0 
3637 1152.8 0 
3638 1153.07 0 
3639 1153.33 0 
3640 1153.6 0 
3641 1153.87 0 
3642 1154.13 0 
3643 1154.4 0 
3644 1154.66 0 
3645 1154.93 0 
3646 1155.2 0 
3647 1155.46 0 

Created by=CCD-Array Toolkit
Creation Date & Time=08.10.2008 10:51:34
Total number of channels=3648
Calibration Type=2
Number of points=17
Channel1=429
Wavelength1=296.728
Channel2=686
Wavelength2=365.015
Channel3=834
Wavelength3=404.656
Channel4=951
Wavelength4=435.833
Channel5=1219
Wavelength5=507.304
Channel6=1480
Wavelength6=576.96
Channel7=1582
Wavelength7=604.3
Channel8=1660
Wavelength8=625.134
Channel9=2052
Wavelength9=730.0306
Channel10=2083
Wavelength10=738.4
Channel11=2168
Wavelength11=760.956
Channel12=2294
Wavelength12=794.82
Channel13=2319
Wavelength13=801.48
Channel14=2466
Wavelength14=840.82
Channel15=2582
Wavelength15=871.669
Channel16=2651
Wavelength16=890.184
Channel17=2829
Wavelength17=937.701
Correct=0

